0       !bFault_stitched_D2.4_Char 3/25/2008 rev of merge of ells and hanks 
  24.60  50.00 0.050   !stitched faults such as Death Valley
 -125.00 -100.00 0.050   !remove antelope and carson range, KH feb 9 2007
760. 2.0        ! vs30 and dbasin
1. 200.
5        5 spectral periods
0. 1. 0. PGA
0.375 0.210 0.245
0.230 0.225 0.23
0.400 0.360 0.31
NGA/bFault_stitched_D2.4_Char.pga
19
.005 .007 .0098 .0137 .0192 .0269 .0376 .0527 .0738 .103 .145 .203 .284 .397 .556 .778 1.09 1.52 2.13 
3
13 0.3333  1000. 0.25  0 Boore and Atkinson Apr 07
14 0.3333  1000. 0.25  0 CB
15 0.3333  1000. 0.25  0 CY
1.0 1. 0. 1.0-s sa
0.375 0.210 0.245
0.230 0.225 0.23
0.400 0.360 0.31
NGA/bFault_stitched_D2.4_Char.1hz
20
.0025 .00375 .00563 .00844 .0127 .0190 .0285 .0427 .0641 .0961 .144 .216 .324 .487 .730 1.09 1.64 2.46 3.69 5.54
3
13 0.3333  1000. 0.25  0 Boore and Atkinsn Apr 07
14 0.3333  1000. 0.25  0 CB
15 0.3333  1000. 0.25  0 CY
0.2 1. 0.  5hz PSA
0.375 0.210 0.245
0.230 0.225 0.23
0.400 0.360 0.31
NGA/bFault_stitched_D2.4_Char.5hz
19                        
.005 .0075 0.0113 .0169 .0253 .0380 .0570 .0854 .128 .192 .288 .432 .649 .973 1.46 2.19 3.28 4.92 7.38 
3
13 0.3333  1000. 0.25  0 Boore and Atkinsn Apr 07
14 0.3333  1000. 0.25  0 CB
15 0.3333  1000. 0.25  0 CY
0.5 1. 0.  PSA
0.375 0.210 0.245
0.230 0.225 0.23
0.400 0.360 0.31
NGA/bFault_stitched_D2.4_Char.2hz
20
.0025 .005 .0075 0.0113 .0169 .0253 .0380 .0570 .0854 .128 .192 .288 .432 .649 .973 1.46 2.19 3.28 4.92 7.38 
 3
13 0.3333  1000. 0.25  0 Boore and Atkinsn Apr 07
14 0.3333  1000. 0.25  0 CB
15 0.3333  1000. 0.25  0 CY
2.0 1. 0.  PSA
0.375 0.210 0.245
0.230 0.225 0.23
0.400 0.360 0.31
NGA/bFault_stitched_D2.4_Char.2sc
20
.0025 .006 .0098 .0137 .0192 .0269 .0376 .0527 .0738 .103 .145 .203 .284 .397 .556 .778 1.09 1.52 2.13 3.3
3
13 0.3333  1000. 0.25  0 Boore and Atkinsn Apr 07
14 0.3334  1000. 0.25  0 CB
15 0.3333  1000. 0.25  0 CY
1. 1.
1
0
1
.12 5
  1  2  2  Mount Diablo Thrust                   combined w/merge2.f
 6.700 0.13946E-02 0.5000
 6.500 0.27825E-02 0.5000
   38.0    13.00   8.0       25.0
   2
   37.73010 -121.82290
   37.87710 -122.03880
  1  2  2  Monte Vista-Shannon                               
 6.500 0.38211E-03 0.5000
 6.300 0.76241E-03 0.5000
   45.0     5.00   0.0       45.0
   5
   37.43750 -122.25001
   37.30500 -122.06500
   37.26500 -122.00001
   37.22750 -121.92750
   37.21000 -121.83750
  1  1  2  Ortigalita                                        
 7.100 0.41561E-03 0.5000
 6.900 0.82925E-03 0.5000
   90.0    11.00   0.0       70.0
   7
   37.27054 -121.28059
   37.19204 -121.22482
   37.11761 -121.15121
   37.03807 -121.12592
   36.90705 -121.01141
   36.79396 -120.90358
   36.73216 -120.89540
  1  1  2  Rinconada                                         
 7.500 0.25816E-03 0.5000
 7.400 0.36465E-03 0.5000
   90.0    10.00   0.0      191.0
   7
   36.67524 -121.75650
   36.45199 -121.46286
   35.61091 -120.70242
   35.44550 -120.66200
   35.40220 -120.61500
   35.35300 -120.58300
   35.31120 -120.51700
  1  1  2  Monterey Bay-Tularcitos                           
 7.300 0.15771E-03 0.5000
 7.200 0.22277E-03 0.5000
   90.0    14.00   0.0       83.0
   7
   36.36826 -121.52527
   36.40017 -121.59573
   36.43872 -121.64890
   36.46929 -121.73531
   36.58495 -121.86559
   36.81360 -122.01049
   36.92128 -122.12216
  1  1  2  Honey Lake                                        
 7.000 0.12019E-02 0.5000
 6.800 0.23981E-02 0.5000
   90.0    11.00   0.0       57.0
   9
   39.99474 -120.03810
   40.01783 -120.07342
   40.06285 -120.13900
   40.14132 -120.23990
   40.18248 -120.30043
   40.21979 -120.40805
   40.22939 -120.43664
   40.28275 -120.47952
   40.32132 -120.54847
  1  2  2  Table Bluff                                       
 7.200 0.20548E-03 0.5000
 7.000 0.40998E-03 0.5000
   45.0    18.00   0.0       49.0
   4
   40.64778 -124.17976
   40.69600 -124.28200
   40.69800 -124.47499
   40.82800 -124.67900
  1  2  2  Big Lagoon-Bald Mtn                               
 7.500 0.13815E-03 0.5000
 7.500 0.13815E-03 0.5000
   35.0    23.00   0.0       90.0
   7
   41.03298 -123.93412
   41.10547 -123.99326
   41.16545 -124.09451
   41.52538 -124.31129
   41.57700 -124.37600
   41.66206 -124.43228
   41.72955 -124.44366
  1  2  2  Trinidad                                          
 7.500 0.18976E-03 0.5000
 7.500 0.18976E-03 0.5000
   35.0    23.00   0.0       88.0
   9
   40.79000 -123.84100
   40.85426 -123.92214
   40.93652 -123.99940
   40.98206 -124.02867
   41.04041 -124.11172
   41.18733 -124.25066
   41.24423 -124.31860
   41.29700 -124.34300
   41.44900 -124.39400
  1  2  2  Fickle Hill                                       
 7.100 0.23531E-03 0.5000
 6.900 0.46951E-03 0.5000
   35.0    23.00   0.0       32.0
   4
   40.74394 -123.96461
   40.78458 -123.98963
   40.85789 -124.04704
   40.97865 -124.18397
  1  2  2  McKinleyville                                     
 7.200 0.24554E-03 0.5000
 7.100 0.34684E-03 0.5000
   35.0    23.00   0.0       47.0
   8
   40.75712 -123.86379
   40.79176 -123.90343
   40.81747 -123.94196
   40.85803 -123.99852
   40.90951 -124.05132
   40.96202 -124.09076
   41.05808 -124.18308
   41.06589 -124.23273
  1  2  2  Mad River                                         
 7.200 0.25180E-03 0.5000
 7.000 0.50240E-03 0.5000
   35.0    23.00   0.0       42.0
   7
   40.74703 -123.92455
   40.80849 -123.95905
   40.83718 -123.99632
   40.89953 -124.06962
   40.93317 -124.11170
   40.98371 -124.14874
   41.03210 -124.23320
  1  1  2  Collayomi                                         
 6.700 0.36657E-03 0.5000
 6.400 0.10331E-02 0.5000
   90.0    10.00   0.0       28.0
   2
   38.77886 -122.68166
   38.99303 -122.86272
  1  1  2  Bartlett Springs                                  
 7.300 0.21144E-02 0.5000
 7.200 0.29867E-02 0.5000
   90.0     8.00   3.8      174.0
   9
   38.93338 -122.50408
   39.56600 -123.05210
   39.57520 -123.03970
   39.71930 -123.18660
   39.82440 -123.29300
   39.96170 -123.39560
   40.00630 -123.41710
   40.14380 -123.43990
   40.26490 -123.50330
  1  1  2  Hosgri                                            
 7.300 0.79800E-03 0.5000
 7.200 0.11272E-02 0.5000
   80.0     7.00   0.0      171.0
  25
   34.85480 -120.74600
   34.89310 -120.76600
   34.93400 -120.79500
   34.97540 -120.80500
   35.04690 -120.83400
   35.10850 -120.86600
   35.14290 -120.87900
   35.19190 -120.91600
   35.27120 -120.96000
   35.35470 -121.00200
   35.42140 -121.04600
   35.45420 -121.06400
   35.50200 -121.09100
   35.60270 -121.15800
   35.65230 -121.19400
   35.70050 -121.24100
   35.74370 -121.28600
   35.76850 -121.31900
   35.79170 -121.36500
   35.83560 -121.41800
   35.86230 -121.45300
   35.89460 -121.49400
   35.92870 -121.51700
   35.96800 -121.56100
   36.14620 -121.72700
  1  1  2  San Juan                                          
 7.100 0.47422E-03 0.5000
 7.000 0.66985E-03 0.5000
   90.0    13.00   0.0       68.0
   5
   35.67970 -120.29537
   35.50193 -120.22916
   35.30454 -120.12495
   35.28247 -120.08205
   35.14761 -119.96066
  1  3  2  Gillem-Big Crack                                  
 6.800 0.62673E-03 0.5000
 6.600 0.12505E-02 0.5000
   60.0    13.00   0.0       32.0
   4
   41.68326 -121.58840
   41.74523 -121.55521
   41.77399 -121.57070
   41.96874 -121.57070
  1  3  2  Cedar Mtn-Mahogany Mtn                            
 7.100 0.45950E-03 0.5000
 7.000 0.64906E-03 0.5000
   60.0    11.00   0.0       78.0
   4
   41.52567 -121.90136
   41.81986 -121.94468
   41.94527 -121.96301
   42.19857 -122.11630
  1  1  2  Likely                                            
 7.000 0.16066E-03 0.5000
 6.900 0.22693E-03 0.5000
   90.0    11.00   0.0       64.0
   4
   40.89100 -120.24510
   40.94190 -120.32034
   41.10124 -120.47083
   41.33582 -120.72754
  1  3  2  Surprise Valley                                   
 7.200 0.54241E-03 0.5000
 7.100 0.76617E-03 0.5000
   50.0    13.00   0.0       87.0
   7
   41.13222 -119.99061
   41.28270 -120.10568
   41.50401 -120.18092
   41.58146 -120.18314
   41.61245 -120.20747
   41.68990 -120.21633
   41.87358 -120.13888
  1  3  2  Hat Creek-McArthur-Mayfield                       
 7.200 0.61299E-03 0.5000
 7.100 0.86587E-03 0.5000
   60.0    11.00   0.0       97.0
   4
   41.45107 -121.63309
   41.10836 -121.43314
   40.93453 -121.43980
   40.61665 -121.37315
  1  3  2  Robinson Creek                                    
 6.700 0.30348E-03 0.5000
 6.400 0.85534E-03 0.5000
   50.0    17.00   0.0       17.0
   4
   38.20659 -119.31708
   38.23859 -119.30286
   38.26348 -119.30463
   38.33460 -119.23174
  1  3  2  Mono Lake                                         
 6.800 0.16554E-02 0.5000
 6.600 0.33030E-02 0.5000
   50.0    17.00   0.0       26.0
   5
   37.93457 -119.10373
   38.02702 -119.17307
   38.06258 -119.18197
   38.10169 -119.18019
   38.14970 -119.18908
  1  3  2  Hartley Springs                                   
 6.800 0.31775E-03 0.5000
 6.600 0.63399E-03 0.5000
   50.0    17.00   0.0       25.0
   4
   37.63944 -118.99706
   37.69811 -118.99706
   37.75678 -119.02551
   37.84923 -119.07529
  1  3  2  Hilton Creek                                      
 6.900 0.13365E-02 0.5000
 6.700 0.26668E-02 0.5000
   50.0    17.00   0.0       29.0
   5
   37.46165 -118.72861
   37.49009 -118.75348
   37.61988 -118.80860
   37.65366 -118.85661
   37.68922 -118.88328
  1  3  2  Round Valley                                      
 7.100 0.39580E-03 0.5000
 6.900 0.78973E-03 0.5000
   50.0    17.00   0.0       43.0
  19
   37.24244 -118.59922
   37.25132 -118.61618
   37.26467 -118.63512
   37.27861 -118.64111
   37.30151 -118.63881
   37.32666 -118.62761
   37.34512 -118.61513
   37.35740 -118.61499
   37.38248 -118.62971
   37.39753 -118.64251
   37.40476 -118.65061
   37.41369 -118.65119
   37.44611 -118.63719
   37.48127 -118.64157
   37.51517 -118.65043
   37.52474 -118.67178
   37.53973 -118.70231
   37.54858 -118.73086
   37.56028 -118.74232
  1  3  2  Fish Slough                                       
 6.800 0.13382E-03 0.5000
 6.600 0.26701E-03 0.5000
   50.0    17.00   0.0       26.0
  12
   37.36130 -118.39010
   37.39697 -118.39195
   37.43448 -118.40491
   37.45972 -118.39834
   37.47821 -118.39983
   37.49788 -118.40057
   37.51686 -118.39935
   37.52587 -118.39218
   37.54058 -118.39542
   37.55768 -118.40700
   37.56883 -118.40652
   37.58612 -118.39388
  1  1  2  White Mountains                                   
 7.400 0.27493E-03 0.5000
 7.300 0.38835E-03 0.5000
   90.0    13.00   0.0      111.0
  20
   37.02209 -118.16626
   37.03976 -118.16659
   37.06858 -118.18756
   37.17188 -118.22367
   37.24149 -118.25827
   37.30249 -118.27922
   37.33345 -118.29301
   37.37849 -118.30515
   37.43014 -118.31811
   37.48475 -118.33015
   37.52754 -118.33570
   37.57550 -118.34866
   37.66848 -118.36718
   37.73563 -118.37551
   37.78391 -118.41131
   37.83149 -118.42905
   37.86992 -118.41348
   37.90091 -118.38570
   37.94297 -118.34589
   37.96437 -118.33755
  1  1  2  Owl Lake                                          
 6.700 0.12970E-02 0.5000
 6.500 0.25878E-02 0.5000
   90.0    12.00   0.0       25.0
   2
   35.60639 -116.87723
   35.72774 -116.64142
  1  3  2  Deep Springs                                      
 6.800 0.52214E-03 0.5000
 6.600 0.10418E-02 0.5000
   50.0    17.00   0.0       25.0
   9
   37.43485 -117.94248
   37.39684 -117.95624
   37.38197 -117.95898
   37.36665 -117.97384
   37.34915 -117.98705
   37.32071 -117.99695
   37.28657 -118.01456
   37.25507 -118.03271
   37.23056 -118.05967
  1  2  2  Point Reyes                                       
 6.900 0.17966E-03 0.5000
 6.700 0.35847E-03 0.5000
   50.0    12.00   0.0       47.0
   3
   37.94333 -122.83367
   37.99077 -123.06635
   38.18426 -123.24097
  1  1  2  Zayante-Vergeles                                  
 7.000 0.52842E-04 0.5000
 6.900 0.74641E-04 0.5000
   90.0    12.00   0.0       58.0
   4
   36.79268 -121.46381
   36.81287 -121.60956
   36.93775 -121.74194
   37.08872 -121.97340
  1  1  2  Quien Sabe                                        
 6.600 0.69209E-03 0.5000
 6.300 0.19506E-02 0.5000
   90.0    10.00   0.0       23.0
   2
   36.75898 -121.21391
   36.92562 -121.36441
  1  2  2  Pleito                                            
 7.100 0.88761E-03 0.5000
 7.000 0.12538E-02 0.5000
   46.0    19.00   0.0       44.0
  15
   34.94152 -119.29590
   34.95623 -119.23706
   34.95564 -119.20621
   34.98694 -119.12816
   35.00708 -119.08091
   35.00748 -119.05054
   34.99168 -119.03607
   34.97825 -119.01293
   34.96837 -118.99413
   34.94387 -118.97945
   34.93505 -118.96870
   34.93152 -118.94860
   34.93270 -118.92780
   34.93914 -118.91073
   34.93505 -118.87900
  1  3  2  So Sierra Nevada                                  
 7.500 0.27013E-04 0.5000
 7.500 0.27013E-04 0.5000
   50.0    18.00   0.0      112.0
  13
   35.29430 -118.02300
   35.34700 -118.04000
   35.42610 -118.05100
   35.53840 -118.03400
   35.56800 -118.00400
   35.61000 -117.90900
   35.68390 -117.86900
   35.75829 -117.89597
   35.93410 -117.91198
   35.97259 -117.94594
   36.08000 -117.98500
   36.12400 -118.00900
   36.21930 -117.99000
  1  1  2  Owens Valley                                      
 7.300 0.46856E-03 0.5000
 7.200 0.66186E-03 0.5000
   90.0    14.00   0.0       86.0
   8
   36.50470 -118.02000
   36.55220 -118.04300
   36.63550 -118.07000
   36.69430 -118.08300
   36.77390 -118.11900
   36.85060 -118.16000
   36.93150 -118.19700
   37.23400 -118.32900
  1  3  2  Independence                                      
 7.200 0.70453E-04 0.5000
 7.000 0.14057E-03 0.5000
   50.0    19.00   0.0       48.0
   7
   36.50150 -118.09200
   36.55860 -118.16800
   36.62390 -118.22400
   36.66340 -118.23400
   36.77350 -118.30200
   36.82870 -118.32000
   36.88020 -118.30400
  1  3  2  Birch Creek                                       
 6.600 0.55727E-03 0.5000
 6.400 0.11119E-02 0.5000
   50.0    17.00   0.0       15.0
   5
   36.97624 -118.33651
   37.00376 -118.34528
   37.03629 -118.36655
   37.07131 -118.40533
   37.09883 -118.40408
  1  1  2  West Napa                                         
 6.700 0.63412E-03 0.5000
 6.500 0.12652E-02 0.5000
   90.0    10.00   0.0       30.0
   3
   38.16441 -122.24451
   38.23397 -122.28896
   38.41158 -122.36856
  1  1  2  Hunting Creek-Berryessa                           
 7.100 0.23137E-02 0.5000
 6.900 0.46164E-02 0.5000
   90.0    12.00   0.0       60.0
   2
   38.45300 -122.19700
   38.93338 -122.50408
  1  3  2  Battle Creek                                      
 6.700 0.35454E-03 0.5000
 6.500 0.70740E-03 0.5000
   75.0    11.00   0.0       29.0
   2
   40.40409 -122.18365
   40.47029 -121.85155
  1  2  2  Los Osos                                          
 7.000 0.23891E-03 0.5000
 6.800 0.47668E-03 0.5000
   45.0    14.00   0.0       44.0
   8
   35.30209 -120.86641
   35.29963 -120.78181
   35.28492 -120.73522
   35.24569 -120.68373
   35.20891 -120.65430
   35.16967 -120.53171
   35.12554 -120.48144
   35.12186 -120.45692
  1  2  2  San Luis Range (So Margin)                        
 7.200 0.68772E-04 0.5000
 7.000 0.13722E-03 0.5000
   45.0    14.00   0.0       64.0
   8
   34.84968 -120.23746
   34.86439 -120.26933
   34.91098 -120.30979
   34.97596 -120.41399
   35.10837 -120.56358
   35.14148 -120.64449
   35.16845 -120.71314
   35.18193 -120.78795
  1  2  2  Lions Head                                        
 6.800 0.13003E-04 0.5000
 6.600 0.25945E-04 0.5000
   75.0    10.00   0.0       41.0
   6
   34.69765 -120.23500
   34.71236 -120.33431
   34.71604 -120.40665
   34.72953 -120.44097
   34.84232 -120.55623
   34.86807 -120.61017
  1  2  2  Mission Ridge-Arroyo Parida-Santa Ana             
 6.900 0.23937E-03 0.5000
 6.700 0.47761E-03 0.5000
   70.0     8.00   0.0       69.0
  15
   34.42981 -119.89769
   34.42478 -119.86875
   34.43359 -119.80713
   34.43359 -119.78575
   34.44113 -119.75055
   34.44239 -119.74300
   34.44994 -119.69144
   34.44113 -119.61095
   34.43107 -119.51036
   34.42730 -119.47137
   34.41598 -119.42610
   34.42353 -119.34562
   34.42981 -119.28778
   34.44994 -119.20226
   34.47005 -119.16579
  1  2  2  San Cayetano                                      
 7.200 0.22998E-02 0.5000
 7.100 0.32486E-02 0.5000
   42.0    24.00   0.0       42.0
  13
   34.43610 -118.76200
   34.40470 -118.83100
   34.40210 -118.86500
   34.41725 -118.91304
   34.42704 -118.92385
   34.44946 -118.92792
   34.44841 -118.94363
   34.42210 -118.97685
   34.42178 -119.00752
   34.42294 -119.03671
   34.43573 -119.08182
   34.43289 -119.10376
   34.44997 -119.15906
  1  1  2  Cleghorn                                          
 6.800 0.17849E-02 0.5000
 6.600 0.35613E-02 0.5000
   90.0    16.00   0.0       25.0
   6
   34.31127 -117.46439
   34.28579 -117.38795
   34.29428 -117.34550
   34.27730 -117.31718
   34.27447 -117.25774
   34.28296 -117.20396
  1  2  2  North Frontal  (West)                             
 7.200 0.39779E-03 0.5000
 7.100 0.56189E-03 0.5000
   49.0    21.00   0.0       50.0
  13
   34.31693 -117.26906
   34.34524 -117.22661
   34.37072 -117.22376
   34.37072 -117.20113
   34.40468 -117.20113
   34.43865 -117.16715
   34.44431 -117.14451
   34.44148 -117.10770
   34.42167 -117.05958
   34.39619 -117.00297
   34.38204 -116.98882
   34.36505 -116.93785
   34.37072 -116.85011
  1  2  2  North Frontal  (East)                             
 7.000 0.25795E-03 0.5000
 6.800 0.51469E-03 0.5000
   41.0    25.00   0.0       27.0
   9
   34.33690 -116.79988
   34.33338 -116.74353
   34.34571 -116.71008
   34.33162 -116.66958
   34.34042 -116.64316
   34.33338 -116.62204
   34.32105 -116.58857
   34.31929 -116.53925
   34.31049 -116.52517
  1  1  2  Helendale-So Lockhart                             
 7.400 0.16735E-03 0.5000
 7.300 0.23639E-03 0.5000
   90.0    13.00   0.0      114.0
   9
   34.32480 -116.81500
   34.37570 -116.85700
   34.44100 -116.94500
   34.53940 -117.06400
   34.60380 -117.10600
   34.78680 -117.32800
   34.91560 -117.41800
   35.04280 -117.49700
   35.10870 -117.59700
  1  1  2  Lenwood-Lockhart-Old Woman Springs                
 7.500 0.23333E-03 0.5000
 7.400 0.32958E-03 0.5000
   90.0    13.00   0.0      145.0
   9
   34.34980 -116.64300
   34.46310 -116.69600
   34.55270 -116.76700
   34.64510 -116.84200
   34.75040 -116.92600
   34.87150 -117.08500
   34.95360 -117.24800
   35.05230 -117.47400
   35.21550 -117.77600
  1  1  2  Gravel Hills-Harper Lk                            
 7.100 0.27979E-03 0.5000
 6.900 0.55826E-03 0.5000
   90.0    11.00   0.0       65.0
   5
   34.87243 -116.91851
   34.88799 -116.96001
   34.94894 -117.01707
   35.17459 -117.33739
   35.25629 -117.45410
  1  1  2  Blackwater                                        
 7.100 0.19394E-03 0.5000
 6.900 0.38696E-03 0.5000
   90.0    12.00   0.0       60.0
   5
   35.01430 -117.03700
   35.10580 -117.12800
   35.22740 -117.21400
   35.36630 -117.31300
   35.44940 -117.41300
  1  1  2  Calico-Hidalgo                                    
 7.400 0.55887E-03 0.5000
 7.400 0.55887E-03 0.5000
   90.0    14.00   0.0      117.0
  13
   34.17260 -116.15300
   34.28720 -116.22200
   34.36100 -116.26400
   34.47680 -116.34200
   34.58470 -116.45800
   34.63530 -116.49500
   34.67440 -116.52900
   34.71910 -116.56100
   34.75240 -116.59600
   34.85680 -116.68900
   34.92420 -116.79500
   34.93880 -116.83700
   34.98890 -116.92200
  1  1  2  Pisgah-Bullion Mtn-Mesquite Lk                    
 7.300 0.25030E-03 0.5000
 7.200 0.35356E-03 0.5000
   90.0    13.00   0.0       88.0
  12
   34.13712 -116.00425
   34.15398 -116.02888
   34.20586 -116.06131
   34.29145 -116.12356
   34.39130 -116.17543
   34.47041 -116.25195
   34.47948 -116.25713
   34.49116 -116.25713
   34.56248 -116.33364
   34.63381 -116.37643
   34.69735 -116.40627
   34.81796 -116.48537
  1  1  2  So Emerson-Copper Mtn                             
 7.100 0.24625E-03 0.5000
 6.900 0.49133E-03 0.5000
   90.0    14.00   0.0       54.0
  15
   34.15781 -116.17928
   34.17179 -116.20528
   34.21128 -116.24210
   34.23795 -116.26675
   34.25329 -116.28379
   34.30812 -116.30418
   34.33355 -116.31681
   34.37280 -116.35028
   34.40653 -116.37920
   34.43763 -116.41784
   34.45042 -116.43914
   34.47130 -116.47881
   34.48640 -116.49483
   34.50872 -116.52253
   34.52942 -116.53987
  1  1  2  Johnson Valley (No)                               
 6.900 0.36102E-03 0.5000
 6.700 0.72032E-03 0.5000
   90.0    16.00   0.0       35.0
   9
   34.31320 -116.45820
   34.34338 -116.48162
   34.37537 -116.50692
   34.41050 -116.55389
   34.43032 -116.58453
   34.47537 -116.63191
   34.49249 -116.65424
   34.54475 -116.69480
   34.55601 -116.69808
  1  1  2  Landers                                           
 7.400 0.16368E-03 0.5000
 7.300 0.23120E-03 0.5000
   90.0    15.00   0.0       95.0
  16
   34.16820 -116.42100
   34.19670 -116.43700
   34.27360 -116.44100
   34.30817 -116.45390
   34.36412 -116.45080
   34.44180 -116.49500
   34.48985 -116.52738
   34.52057 -116.53729
   34.56855 -116.57395
   34.61485 -116.65136
   34.64750 -116.67400
   34.69940 -116.73400
   34.75250 -116.80800
   34.78310 -116.85700
   34.83120 -116.88400
   34.87150 -116.91700
  1  1  2  Pinto Mtn                                         
 7.300 0.77477E-03 0.5000
 7.100 0.15459E-02 0.5000
   90.0    16.00   0.0       74.0
  16
   34.05496 -116.72039
   34.06018 -116.70145
   34.07253 -116.67965
   34.08013 -116.63834
   34.07870 -116.59129
   34.08298 -116.55858
   34.11099 -116.47939
   34.12429 -116.45930
   34.13046 -116.41455
   34.14471 -116.28314
   34.14756 -116.22863
   34.13806 -116.08173
   34.13046 -116.05362
   34.12571 -116.01115
   34.10814 -115.95894
   34.10624 -115.94344
  1  1  2  Burnt Mtn                                         
 6.800 0.33224E-03 0.5000
 6.500 0.93637E-03 0.5000
   67.0    17.00   0.0       21.0
   7
   34.12212 -116.41198
   34.09358 -116.41008
   34.06068 -116.41273
   34.03496 -116.39983
   34.01312 -116.39545
   33.98918 -116.39551
   33.93480 -116.39051
  1  1  2  Eureka Peak                                       
 6.700 0.36383E-03 0.5000
 6.400 0.10254E-02 0.5000
   90.0    15.00   0.0       19.0
   6
   33.96074 -116.34210
   33.99466 -116.34317
   34.00991 -116.34650
   34.02391 -116.35315
   34.04454 -116.35514
   34.12244 -116.39458
  1  1  2  Elmore Ranch                                      
 6.700 0.70889E-03 0.5000
 6.500 0.14144E-02 0.5000
   90.0    11.00   0.0       29.0
   2
   33.23095 -115.65569
   33.02990 -115.85434
  1  1  2  Imperial                                          
 7.000 0.92410E-02 0.5000
 6.800 0.18438E-01 0.5000
   82.0    13.00   0.7       46.0
   4
   32.58989 -115.27409
   32.83587 -115.49982
   32.88044 -115.53586
   32.92551 -115.55254
  1  1  2  Superstition Hills                                
 6.800 0.24917E-02 0.5000
 6.600 0.49717E-02 0.5000
   90.0    11.00   0.6       36.0
   4
   33.03440 -115.89500
   33.00819 -115.80239
   32.89990 -115.66400
   32.83026 -115.60622
  1  1  2  Laguna Salada                                     
 7.300 0.12501E-02 0.5000
 7.200 0.17659E-02 0.5000
   90.0    13.00   0.0       99.0
  10
   32.16080 -115.09900
   32.20140 -115.20000
   32.22200 -115.24400
   32.24320 -115.28700
   32.26300 -115.32700
   32.28830 -115.40000
   32.54490 -115.72000
   32.59190 -115.80800
   32.66280 -115.84000
   32.72710 -115.88300
  1  1  2  San Jose                                          
 6.700 0.34613E-03 0.5000
 6.500 0.69061E-03 0.5000
   74.0    16.00   0.0       20.0
   4
   34.11406 -117.69006
   34.08464 -117.73052
   34.06012 -117.83841
   34.03928 -117.87888
  1  1  2  Hollywood                                         
 6.700 0.66457E-03 0.5000
 6.500 0.13260E-02 0.5000
   70.0    18.00   0.0       17.0
   4
   34.11920 -118.23019
   34.11040 -118.31696
   34.09908 -118.37228
   34.08399 -118.40625
  1  1  2  Santa Rosa Island                                 
 6.900 0.53800E-03 0.5000
 6.700 0.10735E-02 0.5000
   90.0     9.00   0.0       58.0
   9
   34.01120 -119.90600
   33.98550 -119.96600
   33.97140 -120.11100
   33.97220 -120.18000
   33.98330 -120.23000
   33.98440 -120.30000
   33.98730 -120.35800
   33.98730 -120.43000
   34.01990 -120.51100
  1  1  2  Santa Cruz Island                                 
 7.200 0.35051E-03 0.5000
 7.000 0.69936E-03 0.5000
   90.0    13.00   0.0       69.0
   8
   34.07270 -119.99400
   34.03140 -119.87400
   34.01550 -119.77800
   34.00480 -119.72500
   33.98570 -119.61200
   33.98710 -119.51500
   33.97850 -119.34700
   33.98280 -119.26000
  1  2  2  Verdugo                                           
 6.900 0.27597E-03 0.5000
 6.700 0.55063E-03 0.5000
   55.0    18.00   0.0       29.0
   7
   34.13131 -118.15357
   34.14960 -118.18648
   34.15508 -118.22854
   34.19714 -118.29071
   34.22274 -118.36569
   34.25383 -118.40775
   34.26115 -118.42055
  1  1  2  Simi-Santa Rosa                                   
 6.900 0.53935E-03 0.5000
 6.700 0.10761E-02 0.5000
   60.0    13.00   1.0       39.0
   8
   34.30380 -118.69600
   34.28350 -118.75800
   34.27080 -118.83600
   34.25230 -118.88500
   34.24680 -118.95100
   34.23460 -119.00000
   34.24220 -119.04300
   34.21680 -119.10000
  1  2  2  Red Mountain                                      
 7.400 0.65356E-03 0.5000
 7.400 0.65356E-03 0.5000
   56.0    17.00   0.0      101.0
  10
   34.33860 -119.30400
   34.33700 -119.38000
   34.35600 -119.42400
   34.35730 -119.47000
   34.35720 -119.53100
   34.35820 -119.63100
   34.36170 -119.74900
   34.38220 -119.86100
   34.39910 -119.93900
   34.35730 -120.38600
  1  2  2  Clamshell-Sawpit                                  
 6.700 0.31447E-03 0.5000
 6.400 0.88631E-03 0.5000
   50.0    18.00   0.0       16.0
   4
   34.24019 -117.84576
   34.22180 -117.88438
   34.21812 -117.92792
   34.17766 -117.99902
  1  2  2  Cucamonga                                         
 6.700 0.33119E-02 0.5000
 6.500 0.66081E-02 0.5000
   45.0    11.00   0.0       28.0
  11
   34.18038 -117.44146
   34.17341 -117.45407
   34.16699 -117.47722
   34.16741 -117.49540
   34.16829 -117.52048
   34.17095 -117.55824
   34.17179 -117.56877
   34.16593 -117.57732
   34.16291 -117.63310
   34.14843 -117.66266
   34.12532 -117.72884
  1  2  2  Channel Islands Thrust                            
 7.300 0.51153E-03 0.5000
 7.200 0.72255E-03 0.5000
   20.0    21.00   5.0       59.0
   9
   34.02580 -119.26300
   34.00100 -119.36100
   33.98840 -119.46600
   33.98660 -119.52500
   33.96120 -119.63300
   33.94310 -119.68000
   33.94310 -119.75700
   33.94570 -119.81500
   33.97450 -119.88200
  1  2  2  Northridge                                        
 6.900 0.88099E-03 0.5000
 6.700 0.17578E-02 0.5000
   35.0    16.00   7.4       33.0
   7
   34.41720 -118.71200
   34.40400 -118.63400
   34.38370 -118.59600
   34.35410 -118.54500
   34.34210 -118.47800
   34.32820 -118.42400
   34.30970 -118.37800
  1  2  2  Great Valley 1                                    
 6.800 0.66621E-04 0.5000
 6.600 0.13293E-03 0.5000
   15.0    10.00   7.0       44.0
   2
   39.67855 -122.29969
   39.28571 -122.28082
  1  2  2  Great Valley 3, Mysterious Ridge                  
 7.100 0.50604E-03 0.5000
 6.900 0.10097E-02 0.5000
   20.0    15.00   9.0       51.0
   2
   39.11694 -122.27771
   38.69012 -122.04836
  1  2  2  Great Valley 2                                    
 6.500 0.94063E-04 0.5000
 6.300 0.18768E-03 0.5000
   15.0    10.00   7.0       22.0
   2
   39.28581 -122.28084
   39.08907 -122.29219
  1  2  2  Great Valley 4a, Trout Creek                      
 6.600 0.10613E-02 0.5000
 6.400 0.21177E-02 0.5000
   20.0    15.00   9.0       19.0
   2
   38.68803 -122.09213
   38.53158 -121.99900
  1  1  2  Great Valley 5, Pittsburg Kirby Hills             
 6.700 0.68413E-03 0.5000
 6.500 0.13650E-02 0.5000
   90.0    10.00  10.0       32.0
   2
   38.28408 -121.97566
   38.01608 -121.84478
  1  2  2  Great Valley 7                                    
 6.900 0.72205E-03 0.5000
 6.600 0.20350E-02 0.5000
   15.0    10.00   7.0       45.0
   2
   37.73443 -121.52409
   37.45441 -121.16144
  1  2  2  Great Valley 8                                    
 6.800 0.93314E-03 0.5000
 6.600 0.18619E-02 0.5000
   15.0    10.00   7.0       41.0
   2
   37.43400 -121.15798
   37.09232 -120.98939
  1  2  2  Great Valley 10                                   
 6.500 0.13904E-02 0.5000
 6.300 0.27741E-02 0.5000
   15.0    10.00   7.0       22.0
   2
   36.79945 -120.75850
   36.62798 -120.64514
  1  2  2  Great Valley 11                                   
 6.600 0.11168E-02 0.5000
 6.400 0.22284E-02 0.5000
   15.0    10.00   7.0       24.0
   2
   36.64091 -120.65305
   36.49507 -120.44764
  1  2  2  Great Valley 12                                   
 6.400 0.15885E-02 0.5000
 6.200 0.31695E-02 0.5000
   15.0    10.00   7.0       17.0
   2
   36.47943 -120.43829
   36.33982 -120.34914
  1  2  2  Great Valley 14 (Kettleman Hills)                 
 7.200 0.52760E-03 0.5000
 7.000 0.10527E-02 0.5000
   22.0    38.00   8.1       24.0
   4
   36.13160 -120.13900
   36.09090 -120.06800
   36.03660 -119.97300
   36.00680 -119.92100
  1  2  2  Great Valley 13 (Coalinga)                        
 7.100 0.60100E-03 0.5000
 6.900 0.11991E-02 0.5000
   15.0    24.00   9.1       32.0
   3
   36.35470 -120.35800
   36.26710 -120.25400
   36.14990 -120.11400
  1  2  2  San Joaquin Hills                                 
 7.100 0.19666E-03 0.5000
 6.900 0.39239E-03 0.5000
   23.0    27.00   2.0       27.0
   4
   33.69500 -117.93300
   33.68800 -117.82300
   33.64700 -117.73600
   33.59700 -117.67400
  1  1  2  Little Lake                                       
 6.900 0.38836E-03 0.5000
 6.700 0.77488E-03 0.5000
   90.0    13.00   0.0       40.0
   3
   35.60516 -117.64749
   35.81126 -117.80907
   35.90688 -117.88341
  1  3  2  Tank Canyon                                       
 6.400 0.10459E-02 0.5000
 6.200 0.20868E-02 0.5000
   50.0    11.00   0.0       16.0
   4
   35.76897 -117.25027
   35.74856 -117.22935
   35.68050 -117.21721
   35.64161 -117.25269
  1  2  2  Elysian Park (Upper)                              
 6.700 0.88027E-03 0.5000
 6.500 0.17564E-02 0.5000
   50.0    16.00   3.0       20.0
   4
   34.06834 -118.09977
   34.06122 -118.13036
   34.06746 -118.23476
   34.11258 -118.29677
  1  1  2  Maacama-Garberville                               
 7.400 0.27362E-02 0.5000
 7.300 0.38650E-02 0.5000
   90.0     7.00   2.4      221.0
   4
   38.57550 -122.69300
   38.86445 -123.00105
   39.99436 -123.71935
   40.26530 -124.01653
  1  2  2  Great Valley 9                                    
 6.800 0.89171E-03 0.5000
 6.600 0.17792E-02 0.5000
   15.0    10.00   7.0       39.0
   2
   37.10314 -120.98671
   36.80830 -120.74888
  1  2  2  Raymond                                           
 6.800 0.81360E-03 0.5000
 6.500 0.22930E-02 0.5000
   79.0    16.00   0.0       22.0
  11
   34.16296 -117.99006
   34.16088 -118.00254
   34.15555 -118.01495
   34.15071 -118.02924
   34.14087 -118.04934
   34.13914 -118.05745
   34.12964 -118.08054
   34.12288 -118.11513
   34.12130 -118.12312
   34.11832 -118.12895
   34.12170 -118.22300
  1  2  2  Casmalia (Orcutt Frontal)                         
 6.700 0.16123E-03 0.5000
 6.500 0.32169E-03 0.5000
   75.0    10.00   0.0       29.0
   6
   34.93305 -120.64818
   34.91466 -120.57462
   34.87788 -120.52067
   34.84723 -120.45201
   34.84355 -120.39684
   34.82148 -120.36987
  1  2  2  Los Alamos-West Baseline                          
 6.900 0.41793E-03 0.5000
 6.700 0.83387E-03 0.5000
   30.0    20.00   0.0       28.0
   4
   34.75895 -120.31837
   34.73075 -120.21172
   34.67191 -120.14429
   34.63145 -120.06458
  1  2  2  North Channel                                     
 6.800 0.59637E-03 0.5000
 6.600 0.11899E-02 0.5000
   26.0     8.00   1.1       51.0
  10
   34.31878 -119.42508
   34.30130 -119.47553
   34.29743 -119.50973
   34.30024 -119.55928
   34.29809 -119.60474
   34.29404 -119.64368
   34.31109 -119.71721
   34.33358 -119.78853
   34.35373 -119.90947
   34.39139 -119.93463
  1  1  2  Malibu Coast, alt 2                               
 7.000 0.14894E-03 0.5000
 6.800 0.29718E-03 0.5000
   74.0    17.00   0.0       38.0
   6
   34.02870 -118.52500
   34.03740 -118.62000
   34.03920 -118.68000
   34.03230 -118.72700
   34.03300 -118.79800
   34.04640 -118.93300
  1  1  2  Chino, alt 2                                      
 6.800 0.64381E-03 0.5000
 6.600 0.12846E-02 0.5000
   65.0    15.00   0.0       29.0
   4
   34.03320 -117.74547
   33.97237 -117.71027
   33.88569 -117.62862
   33.82424 -117.56576
  1  2  2  Puente Hills (LA)                                 
 7.000 0.33134E-03 0.5000
 6.800 0.66110E-03 0.5000
   27.0    28.00   2.1       22.0
   3
   33.96896 -118.12595
   33.95792 -118.20062
   34.03264 -118.33495
  1  2  2  Puente Hills (Santa Fe Springs)                   
 6.700 0.43238E-03 0.5000
 6.400 0.12186E-02 0.5000
   29.0    25.00   2.8       11.0
   3
   33.93106 -118.01782
   33.91569 -118.07898
   33.90710 -118.13831
  1  2  2  Puente Hills (Coyote Hills)                       
 6.900 0.35168E-03 0.5000
 6.600 0.99116E-03 0.5000
   26.0    27.00   2.8       17.0
   4
   33.89773 -117.86731
   33.87146 -117.92065
   33.87407 -117.96642
   33.89280 -118.04352
  1  1  2  San Gabriel                                       
 7.300 0.32364E-03 0.5000
 7.200 0.45715E-03 0.5000
   61.0    17.00   0.0       71.0
  10
   34.31781 -118.28004
   34.33110 -118.30100
   34.37050 -118.42800
   34.39470 -118.48900
   34.43630 -118.56100
   34.51420 -118.64400
   34.56060 -118.69600
   34.62030 -118.77200
   34.66210 -118.81600
   34.71400 -118.87500
  1  1  2  Earthquake Valley                                 
 6.800 0.11624E-02 0.5000
 6.600 0.23192E-02 0.5000
   90.0    19.00   0.0       20.0
   5
   33.18055 -116.58593
   33.16260 -116.56500
   33.13690 -116.52700
   33.11060 -116.49700
   33.07177 -116.41229
  1  2  2  White Wolf                                        
 7.200 0.73045E-03 0.5000
 7.000 0.14574E-02 0.5000
   75.0    15.00   0.0       63.0
   9
   35.02760 -119.00700
   35.14640 -118.81100
   35.17760 -118.77900
   35.20970 -118.73500
   35.23220 -118.67200
   35.26730 -118.60200
   35.32040 -118.53800
   35.37110 -118.48700
   35.38390 -118.47083
  1  3  2  West Tahoe                                        
 7.100 0.28132E-03 0.5000
 7.000 0.39738E-03 0.5000
   50.0    17.00   0.0       51.0
   9
   38.81529 -120.02217
   38.88470 -120.05866
   38.96611 -120.07407
   38.99956 -120.08787
   39.09801 -120.10571
   39.18257 -120.08787
   39.21034 -120.10490
   39.23432 -120.10895
   39.26209 -120.12031
  1  3  2  North Tahoe                                       
 6.700 0.30629E-03 0.5000
 6.500 0.61113E-03 0.5000
   50.0    17.00   0.0       20.0
   6
   39.11000 -120.04407
   39.13524 -120.04488
   39.14912 -120.04974
   39.17815 -120.03190
   39.21602 -119.99297
   39.27092 -119.97919
  1  2  2  Great Valley 4b, Gordon Valley                    
 6.800 0.78970E-03 0.5000
 6.600 0.15757E-02 0.5000
   20.0    15.00   9.0       28.0
   3
   38.52846 -122.04736
   38.43972 -122.02940
   38.28669 -121.94630
  1  1  2  Palos Verdes Connected                            
 7.700 0.60025E-03 0.5000
 7.700 0.60025E-03 0.5000
   90.0    10.00   0.0      285.0
  29
   33.97020 -118.55700
   33.90210 -118.49600
   33.86370 -118.43900
   33.81750 -118.40000
   33.78950 -118.33400
   33.74720 -118.25400
   33.69190 -118.23300
   33.58350 -118.14600
   33.54490 -118.11900
   33.48160 -118.08000
   33.44280 -118.06000
   33.35460 -117.98600
   33.31840 -117.94300
   33.27980 -117.91700
   33.20660 -117.83800
   33.07320 -117.74200
   33.02690 -117.68700
   32.95200 -117.61600
   32.92510 -117.57400
   32.86550 -117.52000
   32.80850 -117.50700
   32.75240 -117.46700
   32.72350 -117.43300
   32.67860 -117.41300
   32.62380 -117.34400
   32.59400 -117.31500
   32.55190 -117.29800
   32.49490 -117.26600
   31.89000 -116.84000
  1  1  2  Newport Inglewood Connected alt 2                 
 7.500 0.38096E-03 0.5000
 7.500 0.38096E-03 0.5000
   90.0    11.00   0.0      208.0
  30
   32.56030 -117.14729
   32.60327 -117.15052
   32.64777 -117.16544
   32.70989 -117.16209
   32.72904 -117.17044
   32.75951 -117.19760
   32.80108 -117.20996
   32.83548 -117.24129
   32.85454 -117.26357
   33.01888 -117.32515
   33.08578 -117.37692
   33.09707 -117.39610
   33.10825 -117.41099
   33.12254 -117.42337
   33.15593 -117.42914
   33.21629 -117.48698
   33.25150 -117.54735
   33.40241 -117.68819
   33.50804 -117.79886
   33.59104 -117.91455
   33.60599 -117.92467
   33.67800 -117.99491
   33.69543 -118.03264
   33.75121 -118.09271
   33.82041 -118.19512
   33.85026 -118.21571
   33.87152 -118.24791
   33.91318 -118.28110
   33.95663 -118.33150
   34.04331 -118.38955
  1  2  2  Santa Monica Connected alt 2                      
 7.400 0.65796E-03 0.5000
 7.300 0.92939E-03 0.5000
   43.7    15.00   0.8       93.0
  15
   34.10930 -118.28400
   34.07240 -118.38900
   34.05030 -118.43400
   34.03300 -118.45800
   34.04190 -118.46700
   34.03640 -118.49800
   34.03020 -118.54100
   34.02020 -118.55200
   33.99192 -118.64925
   33.97310 -118.74300
   33.95810 -118.81900
   33.94740 -118.93500
   33.96980 -119.02000
   33.97480 -119.14500
   33.93880 -119.22800
  1  2  2  Oak Ridge Connected                               
 7.400 0.10899E-02 0.5000
 7.300 0.15395E-02 0.5000
   53.1    18.00   0.6       94.0
  15
   34.25230 -119.67800
   34.26140 -119.60600
   34.25040 -119.51500
   34.23380 -119.43200
   34.23150 -119.35100
   34.25150 -119.27300
   34.24808 -119.20502
   34.26305 -119.15823
   34.31651 -119.09740
   34.35225 -119.04024
   34.36309 -118.95891
   34.38133 -118.88049
   34.38502 -118.81043
   34.40132 -118.77422
   34.39777 -118.72270
  1  2  2  Pitas Point Connected                             
 7.300 0.30532E-03 0.5000
 7.100 0.60919E-03 0.5000
   55.3    14.00   1.2       78.0
  12
   34.34350 -119.14100
   34.29100 -119.22400
   34.28740 -119.30300
   34.30770 -119.41300
   34.30270 -119.46300
   34.29189 -119.58951
   34.30243 -119.68842
   34.31109 -119.71721
   34.31672 -119.74472
   34.33454 -119.83937
   34.34340 -119.90105
   34.36939 -119.95482
  1  1  2  Santa Ynez Connected                              
 7.400 0.60724E-03 0.5000
 7.300 0.85775E-03 0.5000
   70.0    12.00   0.0      132.0
  19
   34.51210 -120.30700
   34.51470 -120.26300
   34.52390 -120.20800
   34.54420 -120.12000
   34.56180 -120.03100
   34.56030 -119.97700
   34.54740 -119.93500
   34.55330 -119.86700
   34.54840 -119.80600
   34.52050 -119.73200
   34.49920 -119.63550
   34.48800 -119.55300
   34.48880 -119.50100
   34.49870 -119.43500
   34.50670 -119.32000
   34.52930 -119.23000
   34.53150 -119.16400
   34.56970 -118.95400
   34.58390 -118.90400
  1  2  2  Sierra Madre Connected                            
 7.300 0.72604E-03 0.5000
 7.200 0.10256E-02 0.5000
   51.0    18.00   0.0       76.0
  24
   34.12310 -117.74000
   34.12190 -117.75500
   34.13170 -117.76900
   34.13050 -117.80700
   34.13230 -117.81800
   34.15870 -117.86000
   34.14700 -117.88100
   34.15010 -117.94000
   34.16110 -117.98500
   34.17520 -118.00300
   34.17580 -118.06800
   34.20100 -118.11200
   34.20280 -118.14900
   34.21074 -118.18903
   34.23489 -118.22268
   34.24945 -118.26234
   34.25850 -118.27932
   34.27820 -118.29510
   34.27452 -118.31963
   34.29046 -118.39563
   34.30394 -118.41894
   34.30272 -118.43365
   34.29291 -118.46185
   34.30272 -118.47778
  1  1  2  Death Valley Connected                            
 7.800 0.89597E-03 0.5000
 7.900 0.63430E-03 0.5000
   81.6    14.00   0.0      306.0
  39
   37.82865 -118.19231
   37.75171 -118.15497
   37.71606 -118.12399
   37.66143 -118.09322
   37.61347 -118.07466
   37.60012 -118.05708
   37.58902 -118.03401
   37.52333 -117.96381
   37.36744 -117.80731
   37.34746 -117.76252
   37.32084 -117.69734
   37.30194 -117.66754
   37.29410 -117.65300
   37.07840 -117.44300
   37.05170 -117.40700
   36.95780 -117.31300
   36.91250 -117.28300
   36.87600 -117.24500
   36.79680 -117.18000
   36.75770 -117.15600
   36.70680 -117.10000
   36.62340 -116.98800
   36.59280 -116.94400
   36.56150 -116.89200
   36.52913 -116.88402
   36.48024 -116.85824
   36.40468 -116.83069
   36.32912 -116.78180
   36.19489 -116.75423
   36.14441 -116.76102
   36.09418 -116.72456
   36.04886 -116.76102
   35.99129 -116.72305
   35.89178 -116.69038
   35.87480 -116.66400
   35.84145 -116.62127
   35.66713 -116.46253
   35.63214 -116.44051
   35.60150 -116.39900
  1  1  2  Hunter Mountain Connected                         
 7.600 0.55603E-03 0.5000
 7.600 0.55603E-03 0.5000
   90.0    13.00   0.0      186.0
  24
   35.61219 -116.90464
   35.63979 -116.94231
   35.65978 -116.97594
   35.68278 -117.05161
   35.71124 -117.09048
   35.75447 -117.12139
   35.86077 -117.16798
   35.89043 -117.17103
   35.92067 -117.18646
   36.00811 -117.21472
   36.03833 -117.21964
   36.07086 -117.19669
   36.20697 -117.21976
   36.26987 -117.26433
   36.30707 -117.31814
   36.43964 -117.41147
   36.47527 -117.43249
   36.52326 -117.54011
   36.56991 -117.62083
   36.61723 -117.68136
   36.66050 -117.82178
   36.70512 -117.84952
   36.75447 -117.87559
   36.92416 -117.95210
  1  1  2  Greenville Connected                              
 7.000 0.10294E-02 0.5000
 6.800 0.20539E-02 0.5000
   90.0    14.00   0.8       50.0
   8
   37.49940 -121.54080
   37.52560 -121.55390
   37.57540 -121.58080
   37.64390 -121.64380
   37.68580 -121.66470
   37.72190 -121.69970
   37.79300 -121.76300
   37.88390 -121.83280
  1  1  2  Green Valley Connected                            
 6.800 0.29187E-02 0.5000
 6.600 0.58236E-02 0.5000
   90.0     7.00   3.7       56.0
   4
   38.38250 -122.17890
   38.25870 -122.14590
   38.03890 -122.07660
   37.90030 -121.98960
  1  2  2  Little Salmon Connected                           
 7.500 0.76277E-03 0.5000
 7.500 0.76277E-03 0.5000
   30.0    26.00   0.0       80.0
   7
   40.53400 -123.99000
   40.58400 -124.10399
   40.64600 -124.17800
   40.76400 -124.23100
   40.79600 -124.35200
   40.94100 -124.47499
   41.00400 -124.64099
  1  1  2  San Gregorio Connected                            
 7.500 0.14119E-02 0.5000
 7.400 0.19943E-02 0.5000
   90.0    11.00   0.6      176.0
  11
   36.31310 -121.85930
   36.35900 -121.90000
   36.41940 -121.93510
   36.46690 -121.95380
   36.51720 -121.98030
   36.55610 -122.02120
   36.66960 -122.09450
   36.74960 -122.12950
   36.85280 -122.15550
   37.29060 -122.39360
   37.76820 -122.61660
